* Measurement data measured by REW V5.20.4
* Source: Input device not selected, no input selected, R, volume: no control
* Format: 256k Log Swept Sine, 1 sweep at -12,0 dBFS with no timing reference
* Dated: 21.06.2022 10:50:39
* REW Settings:
*  C-weighting compensation: Off
*  Target level: 75.0 dB
* Note: 
* Measurement: Jun 21
* Smoothing: 1/48 octave
* Frequency Step: 1/96 octave
* Start Frequency: 0.366 Hz
*
* Freq(Hz) SPL(dB) Phase(degrees)
0.366299 75.508 -14.7143
0.368954 75.504 -14.7730
0.371627 75.499 -14.8336
0.374320 75.495 -14.8963
0.377033 75.490 -14.9609
0.379765 75.486 -15.0277
0.382517 75.481 -15.0965
0.385289 75.477 -15.1674
0.388081 75.472 -15.2404
0.390893 75.467 -15.3155
0.393725 75.463 -15.3928
0.396578 75.458 -15.4722
0.399452 75.453 -15.5539
0.402347 75.448 -15.6377
0.405262 75.444 -15.7238
0.408199 75.439 -15.8121
0.411157 75.434 -15.9027
0.414136 75.429 -15.9956
0.417137 75.424 -16.0907
0.420160 75.419 -16.1882
0.423205 75.414 -16.2880
0.426272 75.409 -16.3902
0.429361 75.404 -16.4948
0.432472 75.399 -16.6017
0.435606 75.394 -16.7110
0.438762 75.388 -16.8227
0.441942 75.383 -16.9369
0.445144 75.378 -17.0535
0.448370 75.373 -17.1726
0.451619 75.367 -17.2941
0.454892 75.362 -17.4181
0.458188 75.356 -17.5446
0.461508 75.351 -17.6736
0.464852 75.345 -17.8051
0.468221 75.340 -17.9391
0.471614 75.334 -18.0757
0.475031 75.329 -18.2148
0.478474 75.323 -18.3564
0.481941 75.317 -18.5006
0.485433 75.311 -18.6474
0.488951 75.306 -18.7967
0.492494 75.300 -18.9486
0.496063 75.294 -19.1030
0.499658 75.288 -19.2600
0.503278 75.282 -19.4196
0.506925 75.276 -19.5817
0.510599 75.270 -19.7464
0.514299 75.264 -19.9136
0.518025 75.258 -20.0835
0.521779 75.251 -20.2558
0.525560 75.245 -20.4307
0.529369 75.239 -20.6082
0.533205 75.233 -20.7881
0.537069 75.226 -20.9706
0.540960 75.220 -21.1556
0.544880 75.213 -21.3430
0.548829 75.207 -21.5330
0.552806 75.200 -21.7253
0.556812 75.194 -21.9201
0.560847 75.187 -22.1173
0.564911 75.180 -22.3169
0.569004 75.174 -22.5189
0.573128 75.167 -22.7231
0.577281 75.160 -22.9297
0.581464 75.153 -23.1386
0.585677 75.146 -23.3496
0.589921 75.139 -23.5629
0.594196 75.132 -23.7783
0.598502 75.125 -23.9958
0.602839 75.118 -24.2154
0.607207 75.111 -24.4371
0.611608 75.103 -24.6607
0.616040 75.096 -24.8862
0.620504 75.089 -25.1135
0.625000 75.081 -25.3427
0.629529 75.074 -25.5736
0.634091 75.066 -25.8062
0.638686 75.059 -26.0404
0.643314 75.051 -26.2762
0.647976 75.043 -26.5134
0.652671 75.036 -26.7520
0.657401 75.028 -26.9919
0.662164 75.020 -27.2329
0.666963 75.012 -27.4752
0.671796 75.004 -27.7184
0.676664 74.996 -27.9626
0.681567 74.988 -28.2076
0.686506 74.980 -28.4533
0.691481 74.972 -28.6996
0.696492 74.963 -28.9464
0.701539 74.955 -29.1935
0.706622 74.947 -29.4409
0.711743 74.938 -29.6884
0.716900 74.930 -29.9359
0.722095 74.921 -30.1832
0.727328 74.913 -30.4301
0.732599 74.904 -30.6766
0.737907 74.890 -30.9239
0.743254 74.876 -31.1732
0.748640 74.862 -31.4247
0.754065 74.848 -31.6782
0.759530 74.833 -31.9339
0.765033 74.819 -32.1917
0.770577 74.804 -32.4518
0.776161 74.789 -32.7141
0.781785 74.774 -32.9786
0.787451 74.758 -33.2455
0.793157 74.743 -33.5146
0.798904 74.727 -33.7862
0.804694 74.711 -34.0601
0.810525 74.695 -34.3365
0.816398 74.678 -34.6154
0.822314 74.661 -34.8967
0.828273 74.644 -35.1806
0.834275 74.627 -35.4671
0.840320 74.609 -35.7563
0.846410 74.591 -36.0480
0.852543 74.573 -36.3425
0.858721 74.554 -36.6398
0.864944 74.535 -36.9398
0.871211 74.516 -37.2427
0.877525 74.497 -37.5484
0.883883 74.477 -37.8571
0.890288 74.456 -38.1688
0.896740 74.435 -38.4835
0.903238 74.414 -38.8012
0.909783 74.392 -39.1221
0.916376 74.370 -39.4462
0.923016 74.348 -39.7735
0.929705 74.325 -40.1040
0.936442 74.301 -40.4379
0.943228 74.277 -40.7752
0.950063 74.253 -41.1160
0.956947 74.228 -41.4603
0.963882 74.202 -41.8081
0.970866 74.176 -42.1596
0.977902 74.149 -42.5147
0.984988 74.121 -42.8737
0.992126 74.093 -43.2364
0.999315 74.064 -43.6031
1.006557 74.035 -43.9737
1.013850 74.005 -44.3484
1.021197 73.974 -44.7271
1.028597 73.942 -45.1101
1.036051 73.910 -45.4973
1.043558 73.877 -45.8889
1.051121 73.842 -46.2848
1.058737 73.808 -46.6853
1.066409 73.772 -47.0904
1.074137 73.735 -47.5001
1.081921 73.697 -47.9146
1.089761 73.659 -48.3339
1.097658 73.619 -48.7581
1.105612 73.579 -49.1866
1.113623 73.538 -49.6181
1.121693 73.497 -50.0529
1.129821 73.455 -50.4910
1.138009 73.413 -50.9325
1.146255 73.370 -51.3777
1.154561 73.326 -51.8266
1.162928 73.283 -52.2795
1.171355 73.238 -52.7364
1.179843 73.193 -53.1977
1.188393 73.146 -53.6633
1.197004 73.100 -54.1336
1.205678 73.052 -54.6087
1.214415 73.003 -55.0887
1.223215 72.953 -55.5740
1.232079 72.903 -56.0647
1.241007 72.851 -56.5610
1.250000 72.798 -57.0632
1.259058 72.743 -57.5715
1.268182 72.688 -58.0860
1.277371 72.631 -58.6072
1.286628 72.573 -59.1352
1.295951 72.513 -59.6702
1.305342 72.452 -60.2126
1.314801 72.388 -60.7627
1.324329 72.324 -61.3207
1.333925 72.257 -61.8869
1.343592 72.188 -62.4616
1.353328 72.118 -63.0452
1.363135 72.045 -63.6381
1.373013 71.970 -64.2404
1.382962 71.893 -64.8526
1.392983 71.814 -65.4751
1.403078 71.732 -66.1082
1.413245 71.647 -66.7522
1.423486 71.560 -67.4077
1.433801 71.469 -68.0750
1.444191 71.376 -68.7546
1.454656 71.280 -69.4468
1.465197 71.180 -70.1521
1.475815 71.079 -70.8554
1.486509 70.976 -71.5446
1.497281 70.873 -72.2216
1.508131 70.768 -72.8886
1.519059 70.662 -73.5479
1.530067 70.554 -74.2018
1.541154 70.444 -74.8529
1.552322 70.332 -75.5036
1.563571 70.218 -76.1567
1.574901 70.101 -76.8150
1.586314 69.982 -77.4814
1.597809 69.859 -78.1590
1.609387 69.734 -78.8511
1.621049 69.605 -79.5609
1.632796 69.472 -80.2918
1.644628 69.336 -81.0476
1.656546 69.195 -81.8320
1.668550 69.049 -82.6488
1.680641 68.899 -83.5022
1.692819 68.743 -84.3964
1.705086 68.582 -85.3357
1.717442 68.415 -86.3248
1.729887 68.242 -87.3684
1.742423 68.062 -88.4714
1.755049 67.875 -89.6389
1.767767 67.681 -90.8761
1.780577 67.479 -92.1887
1.793480 67.269 -93.5823
1.806476 67.050 -95.0627
1.819566 66.822 -96.6362
1.832752 66.585 -98.3124
1.846033 66.324 -100.3460
1.859410 66.035 -102.8622
1.872884 65.718 -105.8186
1.886456 65.377 -109.1706
1.900126 65.013 -112.8715
1.913895 64.629 -116.8721
1.927764 64.228 -121.1210
1.941733 63.812 -125.5645
1.955804 63.385 -130.1463
1.969976 62.948 -134.8074
1.984251 62.506 -139.4863
1.998630 62.062 -144.1190
2.013113 61.619 -148.6382
2.027701 61.180 -152.9741
2.042394 60.750 -157.0539
2.057194 60.332 -160.8013
2.072102 59.930 -164.1375
2.087117 59.548 -166.9800
2.102241 59.191 -169.2431
2.117475 58.864 -170.8375
2.132819 58.571 -171.6706
2.148274 58.317 -171.6459
2.163841 58.107 -170.6632
2.179522 57.946 -168.6186
2.195315 57.841 -165.4041
2.211223 57.792 -160.7546
2.227247 57.796 -154.4482
2.243386 57.849 -146.5990
2.259643 57.949 -137.3307
2.276017 58.093 -126.7737
2.292510 58.278 -115.0645
2.309123 58.500 -102.3464
2.325855 58.756 -88.7696
2.342710 59.043 -74.4917
2.359686 59.356 -59.6772
2.376785 59.693 -44.4986
2.394008 60.048 -29.1358
2.411356 60.418 -13.7768
2.428830 60.798 1.3816
2.446430 61.183 16.1346
2.464158 61.569 30.2685
2.482014 61.950 43.5603
2.500000 62.321 55.7778
2.518116 62.676 66.6794
2.536363 63.010 76.0132
2.554743 63.316 83.5174
2.573256 63.595 89.0381
2.591902 63.876 93.0766
2.610684 64.163 95.8017
2.629603 64.456 97.3052
2.648658 64.752 97.6836
2.667851 65.052 97.0383
2.687183 65.354 95.4759
2.706656 65.657 93.1083
2.726269 65.959 90.0527
2.746025 66.260 86.4318
2.765924 66.559 82.3744
2.785967 66.853 78.0148
2.806155 67.142 73.4937
2.826490 67.424 68.9581
2.846972 67.697 64.5615
2.867602 67.960 60.4639
2.888382 68.212 56.8326
2.909312 68.450 53.8415
2.930394 68.673 51.6718
2.951629 68.881 49.9622
2.973018 69.077 48.2883
2.994561 69.262 46.6474
3.016261 69.434 45.0368
3.038118 69.597 43.4538
3.060134 69.749 41.8954
3.082309 69.892 40.3584
3.104645 70.025 38.8395
3.127142 70.151 37.3353
3.149803 70.270 35.8423
3.172627 70.382 34.3565
3.195618 70.489 32.8741
3.218774 70.591 31.3909
3.242099 70.689 29.9027
3.265593 70.784 28.4048
3.289256 70.878 26.8927
3.313092 70.968 25.3680
3.337100 71.051 23.8467
3.361282 71.127 22.3297
3.385639 71.194 20.8175
3.410173 71.254 19.3101
3.434884 71.308 17.8080
3.459775 71.354 16.3112
3.484846 71.394 14.8201
3.510098 71.428 13.3349
3.535534 71.456 11.8559
3.561154 71.478 10.3834
3.586959 71.496 8.9176
3.612952 71.508 7.4588
3.639133 71.517 6.0072
3.665504 71.521 4.5632
3.692065 71.520 3.1214
3.718820 71.511 1.6803
3.745768 71.495 0.2423
3.772911 71.472 -1.1902
3.800251 71.442 -2.6145
3.827789 71.406 -4.0278
3.855527 71.363 -5.4274
3.883466 71.315 -6.8102
3.911607 71.261 -8.1733
3.939952 71.202 -9.5134
3.968503 71.139 -10.8273
3.997260 71.070 -12.1114
4.026226 70.998 -13.3622
4.055401 70.920 -14.5877
4.084789 70.832 -15.7997
4.114388 70.737 -16.9937
4.144203 70.634 -18.1654
4.174234 70.524 -19.3101
4.204482 70.409 -20.4230
4.234950 70.290 -21.4990
4.265638 70.167 -22.5330
4.296548 70.042 -23.5195
4.327683 69.916 -24.4529
4.359043 69.790 -25.3273
4.390630 69.666 -26.1366
4.422447 69.539 -26.8759
4.454494 69.403 -27.5465
4.486773 69.261 -28.1515
4.519286 69.115 -28.6944
4.552034 68.966 -29.1789
4.585020 68.818 -29.6088
4.618245 68.673 -29.9881
4.651711 68.532 -30.3212
4.685419 68.400 -30.6124
4.719372 68.279 -30.8665
4.753570 68.172 -31.0884
4.788016 68.078 -31.2528
4.822712 67.991 -31.3084
4.857660 67.912 -31.2741
4.892860 67.841 -31.1718
4.928316 67.778 -31.0244
4.964029 67.724 -30.8560
5.000000 67.680 -30.6917
5.036232 67.646 -30.5576
5.072727 67.623 -30.4812
5.109486 67.611 -30.4908
5.146511 67.612 -30.5982
5.183805 67.633 -30.7281
5.221369 67.671 -30.8777
5.259205 67.723 -31.0584
5.297316 67.787 -31.2821
5.335702 67.858 -31.5613
5.374367 67.932 -31.9088
5.413311 68.007 -32.3381
5.452538 68.078 -32.8633
5.492050 68.140 -33.4989
5.531847 68.200 -34.2530
5.571934 68.267 -35.1179
5.612310 68.337 -36.0851
5.652979 68.407 -37.1453
5.693943 68.475 -38.2892
5.735204 68.536 -39.5067
5.776763 68.589 -40.7874
5.818624 68.629 -42.1204
5.860788 68.653 -43.4941
5.903258 68.665 -44.9401
5.946035 68.670 -46.4830
5.989123 68.666 -48.1084
6.032523 68.650 -49.8012
6.076237 68.622 -51.5457
6.120268 68.579 -53.3252
6.164618 68.519 -55.1226
6.209289 68.441 -56.9198
6.254284 68.343 -58.7208
6.299605 68.231 -60.5875
6.345255 68.103 -62.5050
6.391235 67.958 -64.4504
6.437549 67.792 -66.3993
6.484198 67.604 -68.3265
6.531185 67.392 -70.2056
6.578513 67.154 -72.0092
6.626183 66.888 -73.7668
6.674199 66.598 -75.5898
6.722563 66.284 -77.4230
6.771278 65.943 -79.1991
6.820345 65.574 -80.8482
6.869768 65.174 -82.2968
6.919549 64.743 -83.4689
6.969691 64.276 -84.2976
7.020196 63.740 -85.0100
7.071068 63.140 -85.6253
7.122308 62.502 -86.0151
7.173919 61.851 -86.0455
7.225904 61.213 -85.5770
7.278266 60.619 -84.4640
7.331007 60.095 -82.5509
7.384131 59.587 -79.4791
7.437639 59.074 -75.3409
7.491535 58.588 -70.4979
7.545822 58.164 -65.3279
7.600502 57.838 -60.2257
7.655579 57.646 -55.6035
7.711054 57.632 -51.8074
7.766932 57.835 -48.2813
7.823214 58.212 -44.9228
7.879904 58.703 -41.8539
7.937005 59.245 -39.2022
7.994520 59.772 -37.1002
8.052452 60.216 -35.6865
8.110803 60.587 -35.1157
8.169578 60.958 -35.3513
8.228777 61.317 -36.2155
8.288406 61.650 -37.5221
8.348468 61.944 -39.0764
8.408964 62.184 -40.6749
8.469899 62.363 -42.2903
8.531276 62.493 -44.2031
8.593097 62.575 -46.3551
8.655366 62.613 -48.6703
8.718086 62.608 -51.0686
8.781260 62.562 -53.4670
8.844893 62.475 -55.8778
8.908987 62.342 -58.3996
8.973545 62.162 -60.9951
9.038571 61.937 -63.6238
9.104069 61.666 -66.2431
9.170040 61.350 -68.8129
9.236490 60.986 -71.4050
9.303422 60.574 -74.0219
9.370838 60.112 -76.6106
9.438744 59.600 -79.1159
9.507140 59.035 -81.4799
9.576033 58.412 -83.7249
9.645425 57.723 -85.9446
9.715320 56.980 -88.0449
9.785721 56.193 -89.9213
9.856632 55.375 -91.4647
9.928058 54.520 -92.5654
10.000000 53.563 -93.2170
10.072464 52.560 -93.5264
10.145453 51.582 -93.6105
10.218971 50.703 -93.5915
10.293022 49.970 -93.5321
10.367610 49.293 -93.2155
10.442738 48.701 -92.7442
10.518411 48.250 -92.2826
10.594631 47.999 -92.0026
10.671404 48.002 -93.5348
10.748734 48.251 -96.8731
10.826623 48.692 -101.1583
10.905077 49.269 -106.0821
10.984100 49.924 -111.3221
11.063695 50.694 -117.0985
11.143867 51.621 -123.6356
11.224621 52.629 -130.4931
11.305959 53.641 -137.2106
11.387886 54.589 -143.3781
11.470407 55.540 -149.2426
11.553527 56.490 -154.9163
11.637249 57.403 -160.4168
11.721577 58.246 -165.7625
11.806517 59.017 -170.8997
11.892071 59.733 -175.8269
11.978246 60.387 179.3707
12.065045 60.972 174.6041
12.152473 61.485 169.8491
12.240536 61.929 165.1840
12.329235 62.298 160.5509
12.418578 62.584 155.8835
12.508568 62.786 151.1579
12.599211 62.915 146.4549
12.690510 62.950 141.6871
12.782471 62.865 136.7476
12.875097 62.659 131.6837
12.968395 62.370 126.7777
13.062370 61.928 121.4975
13.157025 61.253 115.2148
13.252366 60.185 108.5264
13.348398 58.670 102.6529
13.445127 57.084 94.0316
13.542556 55.834 78.7074
13.640691 54.932 51.6012
13.739536 54.202 15.3252
13.839099 53.985 -20.9802
13.939383 54.652 -48.0002
14.040393 56.610 -65.3276
14.142136 59.295 -77.2579
14.244616 61.844 -86.7405
14.347837 63.587 -95.7026
14.451808 64.902 -102.2809
14.556532 65.963 -107.4526
14.662014 66.897 -112.5770
14.768262 67.682 -117.6573
14.875278 68.294 -122.2799
14.983070 68.787 -126.5827
15.091644 69.187 -130.6734
15.201005 69.462 -134.4874
15.311157 69.640 -137.9408
15.422109 69.747 -140.9610
15.533863 69.756 -143.5852
15.646428 69.694 -145.7606
15.759809 69.609 -147.3969
15.874010 69.479 -148.3852
15.989040 69.319 -148.8358
16.104904 69.190 -148.9544
16.221605 69.118 -148.6476
16.339155 69.081 -147.9341
16.457554 69.084 -147.3806
16.576813 69.148 -147.2424
16.696936 69.268 -147.3130
16.817928 69.370 -147.9148
16.939798 69.422 -149.2915
17.062551 69.452 -151.3267
17.186193 69.375 -153.9357
17.310732 69.157 -157.1425
17.436172 68.822 -160.9752
17.562521 68.271 -165.1411
17.689787 67.506 -169.9464
17.817974 66.515 -175.1794
17.947090 65.053 -179.0013
18.077143 62.667 174.6562
18.208138 59.878 171.0883
18.340080 57.839 -174.0742
18.472980 56.499 -128.0463
18.606844 55.949 -76.3701
18.741676 56.819 -52.1578
18.877487 59.431 -52.8317
19.014280 62.040 -61.2685
19.152065 63.293 -67.2750
19.290850 63.822 -75.7708
19.430639 63.853 -85.9084
19.571442 63.335 -96.1282
19.713264 62.377 -109.4705
19.856115 61.006 -130.4688
20.000000 58.988 -158.7485
20.144928 58.096 169.9927
20.290907 59.598 134.4175
20.437943 62.209 98.6030
20.586044 64.362 73.5891
20.735220 66.355 58.5142
20.885475 67.973 46.4224
21.036821 69.041 35.4802
21.189262 69.705 26.3486
21.342808 70.056 17.6249
21.497467 70.060 9.7108
21.653246 69.728 3.0518
21.810154 69.034 -2.7515
21.968201 68.043 -5.9537
22.127390 66.596 -5.4780
22.287735 65.070 -1.5091
22.449242 64.226 7.8400
22.611917 63.905 21.5516
22.775772 64.236 30.4281
22.940815 65.365 34.4335
23.107054 66.234 34.4090
23.274498 66.635 30.0420
23.443153 66.477 22.0406
23.613033 65.433 11.2288
23.784142 63.939 -3.7324
23.956491 61.875 -37.1216
24.130091 60.292 -60.8541
24.304947 62.258 1.0607
24.481071 66.283 105.3620
24.658470 69.149 127.0623
24.837156 71.394 131.2205
25.017136 73.053 126.9518
25.198421 74.149 114.2507
25.381020 74.879 101.8433
25.564941 75.222 89.0007
25.750195 75.234 75.7764
25.936790 74.901 62.0394
26.124741 74.220 47.3709
26.314051 73.179 31.5032
26.504732 71.720 13.2753
26.696796 69.897 -8.0095
26.890253 67.706 -35.5280
27.085112 65.587 -68.0087
27.281382 64.490 -105.7823
27.479073 64.115 -143.3247
27.678198 64.617 -174.0352
27.878765 65.113 158.8845
28.080786 65.163 135.3191
28.284271 64.812 112.0225
28.489231 64.034 88.4030
28.695675 63.090 63.0476
28.903616 62.043 36.6393
29.113064 61.208 10.7798
29.324028 60.458 -11.9994
29.536524 59.701 -29.1685
29.750557 59.032 -38.0485
29.966141 58.505 -37.7795
30.183289 59.315 -31.6802
30.402010 61.054 -23.7435
30.622314 63.189 -22.6570
30.844217 65.103 -26.0085
31.067726 66.510 -33.6250
31.292856 67.423 -42.8782
31.519617 67.861 -53.3528
31.748020 67.849 -64.2244
31.978081 67.398 -75.1628
32.209808 66.501 -85.9822
32.443211 65.146 -96.5997
32.678310 63.276 -106.0614
32.915108 60.849 -113.0913
33.153625 57.561 -109.4124
33.393871 54.106 -68.7838
33.635857 51.035 31.1317
33.879597 52.045 57.3140
34.125103 54.770 48.1128
34.372387 57.154 34.0446
34.621464 58.833 18.7931
34.872345 60.010 1.4669
35.125042 60.828 -18.2480
35.379574 61.491 -40.4454
35.635948 62.095 -64.1289
35.894180 62.676 -88.4058
36.154285 63.191 -111.7413
36.416275 63.462 -133.2451
36.680161 63.362 -152.3862
36.945961 62.750 -168.6813
37.213688 61.448 179.2515
37.483353 59.330 175.3794
37.754974 56.786 -176.7899
38.028561 54.900 -152.2487
38.304131 55.622 -132.2455
38.581699 57.189 -120.5186
38.861279 58.448 -116.4010
39.142883 59.104 -113.4248
39.426529 59.774 -109.1531
39.712231 60.620 -106.1511
40.000000 61.481 -106.8162
40.289856 61.966 -113.2965
40.581814 61.660 -126.1733
40.875885 60.205 -148.5673
41.172089 58.099 171.2419
41.470440 57.334 111.7617
41.770950 59.866 43.4663
42.073643 62.739 -0.7932
42.378525 64.509 -35.2031
42.685616 65.452 -68.7819
42.994934 66.155 -106.1028
43.306492 67.220 -147.0730
43.620308 68.900 172.1370
43.936401 70.711 136.3605
44.254780 72.092 106.2809
44.575470 72.834 80.3840
44.898483 72.842 57.3590
45.223835 72.033 36.7502
45.551544 70.284 20.2058
45.881630 67.423 14.1014
46.214108 63.778 29.3562
46.548996 61.202 65.6427
46.886307 62.215 74.1776
47.226067 63.564 57.0299
47.568283 64.488 23.4192
47.912983 66.129 -19.7062
48.260181 68.598 -61.6858
48.609894 71.057 -95.8008
48.962143 72.986 -121.9487
49.316940 74.270 -142.5713
49.674313 74.947 -159.7468
50.034271 75.076 -174.6626
50.396843 74.710 172.0417
50.762039 73.888 159.9207
51.129883 72.622 148.4995
51.500389 70.896 137.1292
51.873581 68.641 124.7778
52.249481 65.730 109.3699
52.628101 61.989 86.1001
53.009464 57.269 46.8879
53.393593 51.973 -5.2185
53.780506 50.058 -24.1770
54.170223 53.744 5.0479
54.562763 58.042 18.8481
54.958145 61.136 10.5718
55.356396 63.011 -7.7500
55.757530 63.843 -30.3813
56.161572 63.823 -56.4590
56.568542 63.206 -86.4189
56.978462 62.353 -119.5540
57.391350 61.556 -152.4038
57.807232 60.715 -179.1560
58.226128 59.598 167.0964
58.648056 59.199 171.9280
59.073048 61.434 -171.6250
59.501114 64.764 -165.1748
59.932281 67.244 -174.3813
60.366577 68.578 166.3174
60.804020 68.828 140.8271
61.244629 68.088 109.7056
61.688435 66.547 72.1255
62.135452 64.671 29.1440
62.585712 63.088 -13.0640
63.039234 61.847 -46.2505
63.496040 60.448 -65.8394
63.956161 58.656 -71.2778
64.419617 56.740 -64.3979
64.886421 55.606 -46.1396
65.356621 57.069 -20.6794
65.830215 60.263 -5.2407
66.307251 62.864 -9.3953
66.787743 64.362 -28.1794
67.271713 64.877 -56.0098
67.759193 64.663 -90.3425
68.250206 63.983 -129.9683
68.744774 63.000 -173.6626
69.242928 61.649 138.6252
69.744690 59.788 84.4585
70.250084 57.673 21.4578
70.759148 56.062 -46.9136
71.271896 54.936 -117.0879
71.788361 54.264 165.8391
72.308571 55.521 85.7041
72.832550 57.414 24.1760
73.360321 57.841 -9.2432
73.891922 57.247 -10.7349
74.427376 58.670 11.9502
74.966705 61.548 22.0483
75.509949 63.120 8.4512
76.057121 62.864 -21.1282
76.608261 60.844 -69.5908
77.163399 58.052 -144.7319
77.722557 57.659 137.8623
78.285767 58.684 85.1499
78.853058 58.428 49.7893
79.424461 56.744 18.6973
80.000000 54.801 -16.8628
80.579712 54.851 -57.3967
81.163628 56.487 -95.5417
81.751770 57.331 -124.5684
82.344177 56.698 -138.3223
82.940880 55.970 -132.0649
83.541901 57.266 -122.8706
84.147285 58.813 -133.1709
84.757050 58.870 -160.1812
85.371231 57.383 166.3376
85.989868 54.929 133.0796
86.612984 53.430 99.7822
87.240616 54.582 60.1890
87.872803 56.896 11.8604
88.509560 58.832 -40.1523
89.150940 59.841 -89.4873
89.796967 59.551 -130.9810
90.447670 57.658 -155.5864
91.103088 54.145 -145.5542
91.763260 50.615 -106.2354
92.428215 49.937 -72.5303
93.097992 51.934 -45.3633
93.772614 54.373 -28.1699
94.452133 55.834 -20.7344
